BEGIN IONS
TITLE=id=PXD000461;PRIDE_Exp_Complete_Ac_31251.xml;spectrum=683
PEPMASS=502.30032
CHARGE=2+
871.709 2.485
443.559 19.6
655.486 20.37
304.23 3.65
670.445 13.69
389.899 12.5
588.61 12.14
263.253 5.409
715.132 4.22
527.382 20.12
446.45 64.83
391.093 6.522
901.64 16.36
672.741 11.58
194.176 2.607
378.385 1.472
353.375 8.268
413.434 9.667
606.396 292.3
590.291 5.182
579.397 1.913
491.671 12.07
218.2 250.2
711.625 1.67
330.324 5.552
653.578 6.14
538.454 1.878
370.41 107.8
543.306 13.02
468.381 4.047
687.087 13.82
328.545 9.276
858.564 121.5
493.893 261.0
313.314 1434.0
800.684 1.301
315.163 2.067
812.293 2.731
750.177 3.353
614.959 2.172
515.332 1.752
488.471 8.761
835.587 5.843
562.296 2.802
485.109 129.8
740.161 1.78
752.465 5.642
332.397 15.32
184.168 4.221
781.626 3.281
396.469 29.33
788.332 6.845
455.773 9.067
219.27 6.194
478.342 314.4
314.343 178.4
738.515 6.925
148.995 2.747
276.287 3.798
376.347 4.859
418.973 4.373
607.505 52.63
357.051 5.181
360.179 2.727
645.416 13.86
243.248 2.625
155.127 11.11
840.615 76.46
214.128 3.135
369 6.944
729.513 2.498
563.92 4.986
221.253 15.24
246.205 4.197
669.469 4.006
456.728 16.26
201.151 12.6
474.29 7.232
483.414 20.87
833.544 786.8
489.831 21.07
325.36 1.932
737.406 1.181
663.473 3831.0
305.388 2.132
384.316 4.827
358.416 4.059
600.173 2.417
321.392 1.428
286.233 2.603
480.382 33.11
469.958 2.959
242.021 2.954
501.167 20.02
648.208 1.974
433.925 7.472
509.287 68.58
355.835 14.19
177.057 3.725
371.427 26.9
324.293 1.257
157.167 1.949
741.661 7.445
794.244 3.79
322.191 2.649
742.625 1.734
727.83 1.384
726.422 3.722
367.413 2.512
841.911 12.84
300.352 1.043
423.349 11.31
932.415 2.42
442.677 17.25
472.247 11.26
374.41 3.133
601.329 4.833
631.777 8.516
422.207 7.496
348.595 3.948
233.321 1.264
763.492 2.773
306.268 5.069
830.686 11.31
659.474 4.254
839.577 77.46
487.825 4.855
599.47 5.817
405.365 3.213
262.456 7.891
702.442 2.529
925.472 3.171
323.297 4.611
829.621 9.654
467.522 17.21
708.15 5.687
301.232 2.315
410.26 3.554
759.665 14.52
693.472 2.881
308.38 5.501
891.566 275.1
282.172 3.835
268.438 1.178
508.437 17.71
944.605 1.428
297.245 3.662
302.305 3.309
385.469 2.524
640.637 1.824
460.997 205.9
783.761 5.01
657.479 17.92
283.044 1.889
638.471 18.06
403.92 5.89
173.206 3.982
393.189 1.376
240.473 3.222
530.694 1.369
876.688 3.33
414.379 7.163
295.307 14.53
433.21 3.057
493.186 217.5
327.438 2.461
463.488 15.0
451.677 5.75
296.341 40.82
510.378 12.71
452.814 4.893
457.957 44.4
293.429 3.647
460.176 64.61
239.333 11.98
444.378 3.828
428.969 12.14
343.211 3.241
713.353 2.043
487.171 2.33
147.158 43.63
316.368 2.922
758.631 25.45
354.596 1.135
540.461 2.274
764.65 1.127
406.496 11.32
197.255 3.553
679.422 4.073
274.304 2.12
822.735 18.83
486.385 9.55
344.327 1.361
545.369 2.552
777.617 67.8
210.217 7.739
481.402 39.17
776.603 202.9
646.564 24.78
237.32 1.029
484.178 122.0
445.781 134.0
256.589 2.386
873.598 9.365
397.396 4.766
633.282 1.804
412.31 3.954
614.208 16.17
668.493 5.226
778.594 5.045
175.178 6.612
421.132 2.06
148.123 1.073
875.502 14.36
773.424 2.749
387.173 3.08
424.457 15.49
440.238 48.27
518.411 3.986
617.499 7.38
471.007 1.791
409.068 113.1
200.227 49.13
674.386 20.42
270.277 1.515
294.602 9.115
228.161 433.7
345.218 4.25
381.392 3.309
498.128 4.465
143.16 27.46
317.214 2.892
185.679 2.808
372.115 8.787
744.559 4.228
441.699 14.38
464.501 14.73
285.346 20.06
857.55 327.9
273.035 1.104
815.444 9.081
311.209 5.162
459.392 33.3
159.136 1.085
571.421 2.921
786.531 318.4
532.224 2.61
448.779 13.79
632.558 4.705
158.207 1.042
900.561 20.81
261.337 2.254
627.401 2.831
770.571 21.7
816.787 3.96
196.16 2.161
826.616 5.802
479.504 158.9
585.999 1.588
399.468 20.71
350.363 3.38
430.31 3.68
388.18 61.2
746.75 3.067
192.502 4.544
703.409 1.912
892.283 1.88
183.159 19.29
337.456 2.646
676.595 4.261
331.33 86.87
707.398 8.474
787.54 105.6
691.433 1.989
469.277 5.174
559.52 4.638
482.384 19.75
526.344 86.49
211.282 4.432
461.95 148.9
349.478 1.493
769.485 79.68
555.318 1.93
454.128 4.399
768.515 88.64
386.333 13.3
437.212 12.76
751.451 20.0
473.074 7.454
232.116 5.035
335.228 5.845
292.205 1.139
365.026 1.546
475.54 4.74
229.234 25.41
318.296 2.177
281.114 80.78
395.359 3.262
628.456 8.173
417.413 421.1
616.513 26.36
341.293 767.5
517.304 10.07
436.148 21.34
372.731 1.509
329.578 7.912
195.158 1.732
834.597 311.4
690.435 1.085
182.238 2.87
388.93 58.58
359.23 9.256
363.594 3.376
705.477 1.378
171.084 143.7
664.48 1213.0
647.496 2.59
383.325 7.368
278.372 4.878
836.407 2.359
675.491 8.507
382.424 5.203
418.347 3.674
466.28 17.37
450.749 32.34
342.359 63.45
427.054 17.53
408.059 110.8
338.444 4.504
696.997 5.29
542.465 1.425
252.1 1.013
257.315 2.535
649.37 1.607
671.531 2.38
870.784 1.443
172.12 6.211
622.963 7.576
665.934 2.032
561.458 3.861
144.22 2.517
673.459 82.65
380.463 11.08
411.054 2.761
287.306 3.553
339.361 9.719
284.48 3.803
431.193 3.721
415.281 43.99
716.54 1.884
712.621 5.34
688.201 5.203
400.819 4.506
656.436 50.5
890.579 629.7
191.252 2.068
589.417 11.76
288.158 6.632
299.283 6.348
557.512 2.557
398.308 78.5
587.438 3.334
541.711 1.318
426.41 14.34
572.294 2.754
761.451 2.285
238.452 5.861
639.634 7.917
608.435 2.976
439.143 20.05
476.383 14.11
END IONS